#  n Slip(m)Id 1 Id 2 Id 3 rake(deg)
0001 0.0188 2254 1258 0634 79.420231 
0002 0.0386 2254 0634 0963 79.380526 
0003 0.0023 2083 1792 1429 -8.044543 
0004 0.0002 2004 1526 1137 177.360135 
0005 0.6071 1919 1235 1787 97.235296 
0006 0.0120 2344 0770 0813 4.089031 
0007 0.0032 2397 0581 1544 4.339174 
0008 0.0138 1628 0510 1156 -171.837371 
0009 0.0043 1712 0502 1245 73.466816 
0010 0.0010 2186 0909 2004 4.544909 
0011 0.3486 2020 0466 1181 100.850039 
0012 0.5353 1835 0464 1496 108.252816 
0013 0.0043 2240 0390 1146 -143.779370 
0014 0.4644 2222 1212 2221 102.108692 
0015 0.2659 2318 1580 0907 108.210345 
0016 0.3103 1912 1864 0355 88.033522 
0017 0.7106 2386 1859 0965 70.024974 
0018 0.0020 1347 0224 0805 11.648487 
0019 0.0089 1951 0813 0238 32.753016 
0020 0.0373 2445 1029 2435 26.971669 
0021 0.0336 1679 1226 0276 3.042413 
0022 0.0038 2379 0368 1432 6.074537 
0023 0.0039 2085 0712 1483 6.099132 
0024 0.0199 1628 0258 1002 -172.581281 
0025 0.0042 2063 0194 0191 -1.617801 
0026 0.0828 2279 1438 1058 58.026466 
0027 0.0338 2400 0521 1358 30.296773 
0028 0.0016 2320 2186 0874 12.165299 
0029 0.1562 2204 2036 0575 101.886047 
0030 0.0513 1829 0417 1300 28.975381 
0031 0.0026 2397 1471 0581 5.214451 
0032 0.0052 2269 0310 1708 -171.694019 
0033 0.0269 1581 0783 0387 28.141878 
0034 1.0645 2308 0634 2210 69.799277 
0035 0.0818 1630 0534 1444 18.614404 
0036 0.0197 1752 1713 0838 -169.660784 
0037 1.5514 1345 1170 0904 102.318686 
0038 0.0027 2013 0678 1541 7.965034 
0039 0.0003 1900 1817 0682 1.638703 
0040 0.4127 1211 0218 0915 72.701711 
0041 0.4768 2432 1235 1919 94.952877 
0042 0.0101 2291 0517 1914 -171.738863 
0043 0.0086 2102 0275 1296 55.196893 
0044 0.0187 2285 1926 0221 11.310349 
0045 0.2189 1979 1917 0784 110.977037 
0046 0.8258 2388 0463 1419 111.205963 
0047 0.0000 2201 0787 0994 -144.299076 
0048 0.5589 2497 0555 1008 100.417999 
0049 0.0025 1544 1526 0909 -2.278860 
0050 3.2218 2479 1028 0690 121.590123 
0051 0.0340 2457 0557 1148 21.831359 
0052 0.0202 2242 0994 0787 162.065659 
0053 0.0034 1914 1878 0246 -170.186633 
0054 0.0565 2334 1509 2040 106.262658 
0055 0.0231 1931 0531 1502 57.752284 
0056 0.0240 1966 1561 0845 30.506678 
0057 0.0387 2445 2435 1580 26.611552 
0058 0.0015 2335 0442 1509 15.614469 
0059 0.0279 2389 1630 0387 22.500272 
0060 0.0173 1361 1011 0376 31.179724 
0061 0.9119 1976 1489 0349 101.069998 
0062 0.2498 1667 0539 1256 98.088948 
0063 1.3999 2392 0795 1947 127.848394 
0064 0.0113 2202 1675 1146 -142.395333 
0065 0.0218 2501 2445 0295 33.563845 
0066 0.0136 2344 0499 1616 5.578042 
0067 0.0039 1924 1226 1708 5.818120 
0068 0.0037 2113 1081 0191 -2.255947 
0069 0.0047 1137 1120 0622 -174.558804 
0070 0.0026 1878 0896 1529 -173.738557 
0071 0.0216 1752 0838 0517 -170.800649 
0072 0.0430 1874 1358 0845 30.907860 
0073 0.0138 1791 0811 1599 14.556817 
0074 0.0188 1787 1750 0503 88.575869 
0075 0.0041 1136 1032 0757 30.396371 
0076 0.0058 1353 0581 1117 1.026085 
0077 0.0156 1919 0503 1270 73.754286 
0078 0.0079 1846 0977 0214 -155.533383 
0079 0.0423 2058 0880 0422 14.433380 
0080 0.0280 2187 0601 1979 18.764135 
0081 0.0176 2132 1361 0572 32.070012 
0082 0.0316 2400 1358 1069 30.235579 
0083 0.0048 2379 1353 0583 0.692282 
0084 0.1731 1599 0287 1008 97.746953 
0085 0.1559 1864 0539 1854 137.696152 
0086 0.0017 1656 0502 0344 -10.302339 
0087 1.3660 2497 0904 1703 106.109237 
0088 0.4389 1235 0300 0931 91.549118 
0089 0.0077 2247 0911 2012 20.412439 
0090 0.0361 1406 1170 0377 94.881439 
0091 0.0193 2306 1822 0638 5.041774 
0092 0.0069 1728 0789 0310 -172.244850 
0093 0.4276 1846 1419 0463 124.885150 
0094 0.0224 2491 0734 1466 133.013381 
0095 0.1946 1935 0831 1594 58.695459 
0096 0.0013 2013 1541 0321 14.522603 
0097 2.0196 1703 0904 1170 93.108034 
0098 0.0477 2491 1080 2248 115.741882 
0099 0.0062 1406 0377 1063 75.933980 
0100 0.0001 2077 1231 0573 15.821463 
0101 0.1681 2506 1912 1143 84.149833 
0102 1.1781 2318 0907 1583 113.859364 
0103 0.0115 1993 1296 0275 49.437068 
0104 0.0076 1275 0371 0911 32.025243 
0105 0.9386 1976 0965 1489 69.340154 
0106 0.0050 2201 0214 1338 -152.171924 
0107 0.0039 1656 1592 0502 -5.985708 
0108 0.0379 1148 0557 0943 25.996197 
0109 0.1475 2373 0539 1864 97.512247 
0110 0.1323 2204 1275 2036 89.894548 
0111 0.0958 1592 0710 1245 98.754320 
0112 0.6226 2433 0460 1198 117.132294 
0113 0.5487 2187 1979 0784 112.356103 
0114 0.1750 2373 1864 0727 114.074598 
0115 0.0272 2457 2322 0314 29.648852 
0116 0.0086 2499 1322 0838 -172.135879 
0117 0.6119 2222 1612 0777 102.546752 
0118 0.0030 1544 0277 1526 5.976014 
0119 0.0010 1526 0682 1137 -168.316595 
0120 7.9242 2479 0966 2283 121.920025 
0121 0.0146 0813 0770 0238 4.619853 
0122 0.6314 1906 1482 0794 81.540872 
0123 1.4505 2414 0876 1295 105.176626 
0124 0.0012 2144 0874 1529 9.490950 
0125 0.0319 2322 1112 0314 28.531654 
0126 0.0385 2415 0634 1258 75.403445 
0127 1.2627 1947 1295 0254 127.858865 
0128 0.0024 1541 0896 1421 -172.256246 
0129 0.0247 2442 0601 1676 12.379068 
0130 0.0035 2204 0864 1201 14.341935 
0131 0.0041 1416 0716 0908 63.113210 
0132 0.0028 2291 0246 1529 -173.659153 
0133 0.0008 2004 0909 1526 15.910503 
0134 0.0117 2201 0994 0214 -142.227104 
0135 0.0102 1708 1679 0508 7.211561 
0136 2.5189 1678 0676 0994 128.120377 
0137 1.8985 2414 1947 0795 121.873895 
0138 0.3044 1211 0982 0218 81.736563 
0139 0.7342 2433 1198 1778 70.292402 
0140 0.0027 2083 1471 0713 -7.262684 
0141 0.4299 1612 0247 0777 103.199621 
0142 0.0375 1979 0276 1917 22.891248 
0143 0.0253 1966 1148 0256 33.464530 
0144 0.0475 1752 0517 0654 120.165128 
0145 0.0166 2457 1788 2322 30.771605 
0146 0.5593 1917 1320 0610 110.504893 
0147 2.2130 1583 1521 0783 113.293273 
0148 0.0083 2344 0813 2026 -10.465398 
0149 0.0031 1817 1231 0356 -163.138806 
0150 0.2106 2506 1143 0831 79.041655 
0151 0.5019 2497 1008 0287 98.054306 
0152 0.0168 1518 1002 0258 -172.418987 
0153 0.0170 1555 0789 1002 -170.055508 
0154 0.0265 1846 1466 0977 98.466905 
0155 0.4945 2222 2221 1496 97.800558 
0156 0.9689 1787 1235 0378 99.969741 
0157 0.0003 1541 0678 0896 8.697579 
0158 0.0019 2216 0209 1792 12.919750 
0159 0.5894 1198 0460 0915 93.636029 
0160 3.6575 2051 1586 0676 123.384160 
0161 0.0025 1878 1529 0246 -174.210936 
0162 0.0047 2100 1817 0356 -162.188321 
0163 0.0113 1232 0247 1065 13.622069 
0164 0.0002 1685 1541 0632 -172.071528 
0165 0.0055 1819 0583 1081 33.743622 
0166 0.0045 1118 0421 0990 9.402326 
0167 0.0419 2279 1537 0430 33.568247 
0168 0.0424 1874 0747 1829 30.398197 
0169 0.0522 2306 0897 0422 -5.816434 
0170 0.1739 2157 0324 1070 100.828050 
0171 0.0039 2013 0990 0421 8.062657 
0172 0.0228 1361 0469 1011 32.810355 
0173 0.0031 1432 0846 0277 6.522832 
0174 0.0367 1885 1581 0387 29.732574 
0175 0.0149 2432 1919 0697 61.443040 
0176 0.0043 2015 0665 1259 55.903792 
0177 0.0045 1876 0356 0609 -163.529440 
0178 0.0033 1118 0990 0723 8.670658 
0179 1.4027 1917 0610 1314 116.716226 
0180 0.0038 1792 0209 0194 -1.500790 
0181 0.0019 1858 0224 0908 4.609375 
0182 0.5734 2020 0324 1130 102.454747 
0183 1.4497 2388 1419 0676 121.121985 
0184 0.1798 2386 1752 0654 99.777391 
0185 0.0296 1513 0296 1115 32.641461 
0186 0.0058 1599 1509 0442 43.516537 
0187 0.0492 1935 0647 1638 34.684011 
0188 0.0016 2057 0723 0990 10.673126 
0189 0.0049 2398 0421 1118 8.129271 
0190 0.3327 2238 0275 0864 64.371323 
0191 0.0115 1924 0789 1555 -172.988702 
0192 0.0064 2102 0396 1259 61.597086 
0193 0.2861 2157 1212 0324 100.782341 
0194 0.0972 1935 1594 1132 49.740091 
0195 0.3046 1416 1345 0716 97.486032 
0196 0.0281 2132 0572 1513 32.222081 
0197 0.8779 2388 1489 0965 81.730154 
0198 0.0716 1858 0908 0716 94.811690 
0199 0.1110 1909 0247 0996 98.427037 
0200 0.0028 2059 0609 1313 -162.110232 
0201 0.2434 1846 0463 1466 101.061785 
0202 0.3573 2386 1976 1518 84.319959 
0203 0.0276 2465 0677 1665 31.229006 
0204 0.8836 2415 2210 0634 78.903367 
0205 0.0039 1878 1421 0896 -172.578252 
0206 5.4111 2283 2051 0403 128.747334 
0207 0.7628 2328 0287 1835 97.026184 
0208 0.2400 2373 1256 0539 79.776880 
0209 0.0225 2306 0638 0897 13.976624 
0210 0.0016 1858 0805 0224 9.967602 
0211 4.1411 2283 1314 2051 127.745791 
0212 0.0081 1728 1628 0789 -171.887035 
0213 8.7324 2223 1851 0966 114.706367 
0214 0.0336 1561 1011 0469 28.364504 
0215 0.0046 2320 1427 2085 13.886327 
0216 0.2126 2102 0864 0275 80.385722 
0217 0.0059 2291 0622 1120 -178.105420 
0218 0.2946 1859 1080 1466 91.170777 
0219 0.0029 1900 0277 0846 4.086949 
0220 0.0404 1829 1300 0569 29.418148 
0221 0.9161 2242 1678 0994 128.823175 
0222 0.0096 1232 0996 0247 10.416981 
0223 4.7145 2051 0676 0403 128.254862 
0224 0.6128 2222 0777 1212 104.650164 
0225 0.2374 1858 0716 1496 96.231905 
0226 0.0268 2445 1220 1029 31.078342 
0227 0.9204 1906 1295 0876 81.263635 
0228 0.0412 2442 1676 0897 12.535765 
0229 0.1508 2036 1275 0586 93.749683 
0230 0.0012 2163 1416 0449 27.268182 
0231 0.0038 2240 1698 0390 35.426243 
0232 0.0689 2113 1568 0842 84.168470 
0233 0.0136 2504 1523 1115 29.895888 
0234 0.0128 1320 1226 0571 1.448329 
0235 0.9045 2167 1170 1406 93.719441 
0236 0.0378 1358 0569 1069 29.466033 
0237 8.1912 2223 1521 0245 110.480289 
0238 0.0059 1914 1322 1878 -171.110153 
0239 7.8452 2223 0966 0690 115.040735 
0240 0.0048 1259 0665 1201 51.073136 
0241 0.2120 1846 0214 1419 125.738271 
0242 0.8893 1997 0349 1586 92.686874 
0243 0.0516 1245 0710 0190 99.461867 
0244 0.1128 2102 1259 0864 88.689878 
0245 0.0406 1966 1358 1148 33.379408 
0246 0.0325 1698 0534 0690 29.784049 
0247 0.0026 2101 0197 1483 2.855530 
0248 0.0087 1275 0911 0586 33.392359 
0249 0.0045 1432 0277 1353 5.210862 
0250 0.0010 2091 0193 0192 34.316545 
0251 1.0903 2392 0555 0795 126.561616 
0252 0.0046 2379 0583 1819 1.956588 
0253 0.1547 2221 1801 0805 97.407572 
0254 1.8660 2167 0336 1703 144.122770 
0255 5.6382 1583 0245 1521 111.655065 
0256 0.0361 2389 0690 0534 21.913130 
0257 0.0175 1628 1002 0789 -171.514304 
0258 0.1380 1521 0387 0783 113.751927 
0259 0.0483 1935 0314 1581 32.235115 
0260 0.0079 1876 0609 0977 -157.075866 
0261 0.0029 2101 1483 0712 19.224480 
0262 0.0033 2280 1232 0455 9.059383 
0263 0.2695 2036 1989 0355 87.931141 
0264 0.0142 1791 1065 0811 13.781883 
0265 0.0135 2240 0780 0534 30.753067 
0266 0.0118 1156 1044 0823 -172.002504 
0267 0.0342 1966 0845 1358 30.848247 
0268 0.0003 2091 1031 1712 30.240924 
0269 0.3847 2392 0316 2040 116.427496 
0270 0.0061 2344 2026 0499 -10.137496 
0271 0.0045 2163 1345 1416 72.393708 
0272 0.0284 2445 1580 0677 27.632607 
0273 0.0333 1679 0897 0638 1.333163 
0274 0.0142 1698 1028 0390 35.472537 
0275 0.3721 2020 1592 0324 104.524466 
0276 0.1224 1286 0660 1198 86.184289 
0277 4.0457 2283 0784 1314 118.970417 
0278 0.0045 2113 0189 1568 9.900760 
0279 0.0021 2397 0909 0359 6.137130 
0280 0.1663 1935 1638 0831 37.595031 
0281 0.3491 2392 1675 0316 123.240722 
0282 0.0203 1938 1561 0256 29.246735 
0283 0.0268 1320 0276 1226 7.596191 
0284 0.2586 2036 1271 0575 70.873274 
0285 0.0214 2462 1069 0569 31.384726 
0286 0.3247 2020 1181 1592 101.435408 
0287 0.5535 1835 0811 0464 100.119315 
0288 0.1607 2040 1509 1008 102.230372 
0289 0.0015 2057 2013 0321 16.203207 
0290 0.1346 2157 1801 1212 90.785858 
0291 0.0006 1137 0682 1037 161.196809 
0292 0.0199 2285 0221 1822 -2.731445 
0293 0.6580 2392 2040 0555 117.142375 
0294 0.0033 2085 0713 1471 9.680942 
0295 0.0027 1924 0571 1226 7.773100 
0296 0.0063 1421 1322 0398 -172.423081 
0297 1.5889 1419 0994 0676 124.783908 
0298 0.0275 2465 1665 2400 29.867515 
0299 0.0040 1791 0442 1313 14.831559 
0300 0.0251 2306 0422 0862 -18.293067 
0301 0.0086 2204 0371 1275 52.433884 
0302 0.0193 2465 1069 0295 30.604658 
0303 0.8876 2308 0963 0634 87.850439 
0304 1.5773 2308 0336 2167 133.569868 
0305 0.0700 1630 1444 0660 4.417523 
0306 0.0481 1885 1286 1638 17.546715 
0307 1.8944 2167 1703 1170 98.229363 
0308 0.1821 1612 0811 1065 99.280748 
0309 0.0062 1353 1117 0583 0.675239 
0310 0.0038 2291 1914 0246 -169.787389 
0311 0.0477 1874 0569 1358 28.616336 
0312 0.0460 1986 0782 0368 92.588193 
0313 0.0018 2366 1118 0723 9.656639 
0314 0.0372 2058 0417 0880 14.226772 
0315 0.1535 1997 0571 1555 77.650761 
0316 0.0016 2366 2191 0199 14.981096 
0317 0.0274 2278 0747 1874 30.580463 
0318 0.0248 2278 0845 0469 30.033671 
0319 0.1578 1568 0466 0842 89.936350 
0320 0.0088 2134 0510 1728 -172.096307 
0321 0.0015 1416 0908 0449 12.203107 
0322 0.0049 2499 0823 0398 -172.035803 
0323 0.0009 1685 0321 1541 18.675223 
0324 0.0015 2191 0723 0528 16.565837 
0325 0.0033 2320 2085 0359 4.179243 
0326 0.9394 2308 2210 0876 44.745564 
0327 0.0050 1577 0368 0782 8.314470 
0328 0.0025 2397 1544 0909 8.478773 
0329 0.0380 2442 0276 1979 -5.858714 
0330 0.0150 2334 2202 1068 -149.945869 
0331 0.0437 2389 0534 1630 19.515957 
0332 0.0144 2202 0787 1068 -148.954738 
0333 0.0017 2003 0490 1472 5.446743 
0334 0.3622 1419 0214 0994 130.740816 
0335 0.0286 1986 0368 1819 85.286821 
0336 0.0116 2202 1146 0390 -143.974032 
0337 0.0018 2320 0359 2186 27.291052 
0338 0.4069 1859 1466 0463 68.556632 
0339 0.1385 1912 1438 1143 73.307205 
0340 0.3942 1976 0349 1555 98.266741 
0341 0.0269 2501 1220 2445 25.991206 
0342 0.0077 1338 0214 0977 -156.768552 
0343 0.4813 2432 0300 1235 95.984510 
0344 0.7887 2386 0965 1976 71.535485 
0345 0.3873 1502 1256 0300 86.533846 
0346 0.0052 2248 1120 0327 -171.900619 
0347 0.0080 1791 0573 1065 13.964512 
0348 0.0465 1976 1002 1518 106.527072 
0349 0.0052 2379 1819 0368 36.277476 
0350 0.0034 1421 0398 1367 -172.508679 
0351 0.0251 2278 2132 0747 33.297134 
0352 0.0164 1708 1226 1679 8.100807 
0353 0.0030 2216 0713 1483 -3.396250 
0354 0.1972 1912 0355 1438 77.740425 
0355 0.7018 2392 1947 1675 130.054420 
0356 0.2596 2506 0218 0982 76.484486 
0357 0.0018 1541 1421 0632 -172.060645 
0358 0.6428 1212 0777 1130 104.413862 
0359 0.0055 2113 0191 0189 2.775693 
0360 0.0274 2202 0316 1675 136.136405 
0361 0.0150 1406 1370 0963 83.542564 
0362 0.0161 1667 0531 1215 55.702929 
0363 0.9422 2497 1703 0555 103.503738 
0364 0.0395 2061 1132 1594 44.486391 
0365 0.0065 2012 1951 0238 39.496208 
0366 0.7233 2388 0965 0463 95.522943 
0367 3.3855 1583 0907 0245 112.093816 
0368 0.0627 1599 1008 1509 96.066187 
0369 0.0227 2465 2400 1069 30.697584 
0370 0.1539 2373 0727 0300 90.451446 
0371 0.0423 2061 0430 1537 25.697103 
0372 0.8682 2318 1583 0783 114.180690 
0373 0.0627 2247 1058 0586 79.666424 
0374 0.0039 2083 1117 0581 -1.949503 
0375 0.1519 1947 0780 1675 129.605439 
0376 0.0545 1679 0276 0897 1.169805 
0377 0.0295 2400 1665 0521 28.960832 
0378 0.0023 2216 1483 0197 5.423894 
0379 0.2056 2036 0586 1989 94.280791 
0380 0.0004 1529 0896 0678 -170.867925 
0381 0.0089 2201 1068 0787 -146.996198 
0382 0.1513 1582 0300 0727 51.643672 
0383 0.0347 2318 1665 0677 28.355367 
0384 1.0770 2308 0876 0336 100.224713 
0385 0.0018 2077 0356 1231 -164.261977 
0386 0.1832 2410 0780 1947 115.713644 
0387 0.1698 1612 1065 0247 99.273504 
0388 0.2538 1854 0539 1667 128.323286 
0389 0.0035 2101 0198 0197 10.748133 
0390 0.2138 2221 1212 1801 113.686469 
0391 0.2488 1912 0982 1864 66.133088 
0392 0.0032 2216 0197 0209 -7.273370 
0393 0.0017 1656 0344 1472 -5.338070 
0394 0.2171 1638 0218 0831 70.232122 
0395 0.3578 1909 1130 0247 100.950356 
0396 0.0243 1592 1245 0502 89.476208 
0397 0.0017 2216 1792 0713 -8.728845 
0398 0.3247 1582 0727 1211 63.562643 
0399 0.0270 2465 2445 0677 31.703964 
0400 0.1597 1599 0811 0287 97.429400 
0401 0.0352 1787 1258 1750 73.338035 
0402 0.0029 2063 0191 1081 -2.112020 
0403 0.0065 1791 1599 0442 14.787367 
0404 0.0409 1829 0747 1115 30.644476 
0405 0.0053 1137 0327 1120 169.150081 
0406 0.0390 2435 0601 2187 22.455464 
0407 0.2742 1638 0915 0218 71.780453 
0408 0.0033 1577 0846 1432 6.318116 
0409 0.1116 2491 1466 1080 124.036001 
0410 1.2031 2389 1521 0690 114.860446 
0411 0.0111 2254 0963 1370 84.068066 
0412 0.0125 1513 0572 1136 30.993318 
0413 0.0295 2061 1537 0557 6.948046 
0414 0.0041 2379 1432 1353 6.595098 
0415 0.0315 2457 1132 0557 27.617535 
0416 0.4024 1997 1555 0349 82.257391 
0417 0.6144 2222 0464 1612 102.919224 
0418 0.0210 1628 1156 0258 -171.847024 
0419 0.8751 2210 0378 1482 78.760165 
0420 0.0321 2132 0469 1361 32.809163 
0421 0.0148 1993 1667 1215 45.815993 
0422 0.0028 2366 0198 1118 10.956550 
0423 0.0248 2278 0469 2132 32.774996 
0424 0.2153 1582 0931 0300 115.769842 
0425 0.0030 1421 1367 0632 -172.206339 
0426 0.1983 1989 1438 0355 78.423510 
0427 0.0749 1568 0188 1567 91.471507 
0428 0.0123 2163 0377 1345 95.534675 
0429 0.0014 2004 1137 0622 -171.904757 
0430 0.0010 1900 0682 1526 0.267615 
0431 0.6948 1906 0794 1778 86.763116 
0432 0.0187 2113 1819 1081 73.979210 
0433 0.0395 2058 1300 0417 34.124269 
0434 0.3095 2036 0355 1271 96.594767 
0435 0.0011 1900 0455 1817 4.847059 
0436 0.0321 1885 0647 1581 20.611012 
0437 0.6762 1906 1778 0254 111.360596 
0438 0.0199 1976 1555 1002 -164.553386 
0439 0.0276 1926 0417 1318 0.888682 
0440 0.0095 1361 0822 0572 26.218241 
0441 0.0006 2091 1712 0193 38.735886 
0442 0.0356 1581 0314 1112 34.789581 
0443 0.0038 2100 0356 1876 -167.497981 
0444 0.5673 1212 1130 0324 100.489691 
0445 0.0304 2132 1513 0747 34.197808 
0446 0.2399 1567 1181 0466 88.379489 
0447 1.4568 1586 0349 1489 112.526858 
0448 2.5034 2051 0610 1586 121.297303 
0449 5.6720 2283 1851 0784 117.477690 
0450 0.0053 2144 0421 1427 8.572550 
0451 0.0087 2026 1011 0499 -6.680989 
0452 0.1802 2432 0697 1502 90.539085 
0453 0.0067 1136 0572 1032 29.158782 
0454 0.0102 1466 0734 0977 -146.493323 
0455 0.2449 2435 2187 0907 110.880316 
0456 0.2998 2221 0805 1496 97.184954 
0457 0.0046 1791 1313 0573 14.908255 
0458 0.2082 1594 0831 1143 76.021691 
0459 0.0223 1926 0880 0417 25.402508 
0460 0.0247 1938 0943 1616 31.415212 
0461 0.0052 2100 1876 0734 -157.912692 
0462 0.0113 2285 1822 0862 -8.053357 
0463 0.0399 1676 1029 0422 33.803551 
0464 0.9813 2415 0378 2210 81.116071 
0465 0.0051 1367 0398 0823 -172.127385 
0466 0.0015 2186 0359 0909 27.626032 
0467 0.0116 2499 0838 1713 -171.094103 
0468 0.0167 2285 0880 1926 9.248579 
0469 0.0045 2100 0327 1037 -151.340436 
0470 0.0151 2285 0862 0422 -9.003275 
0471 0.6304 2433 2127 0931 112.464551 
0472 0.5112 2020 1130 1722 102.528812 
0473 0.0196 2501 2462 1300 30.627955 
0474 1.0317 2328 0904 0287 100.168214 
0475 0.0321 1616 0943 1537 33.119223 
0476 0.0366 2322 1665 1112 28.310962 
0477 0.0005 1712 1031 0502 21.185084 
0478 0.0361 1801 1347 0805 89.655599 
0479 0.0291 1938 1011 1561 29.509887 
0480 0.0208 1931 1502 0697 58.485860 
0481 0.3614 1698 0690 1028 125.985934 
0482 8.1605 2283 0966 1851 117.624435 
0483 1.4786 1917 1314 0784 121.028737 
0484 0.0026 2083 0581 1471 5.339193 
0485 1.4850 2388 0676 1489 123.903054 
0486 0.0279 2501 1300 2058 27.022847 
0487 0.1111 2334 2040 0316 115.402380 
0488 0.0003 2186 2004 0622 8.135421 
0489 0.0084 2247 0586 0911 19.723786 
0490 0.0249 2157 1070 0490 88.148289 
0491 0.0232 2465 0295 2445 34.661673 
0492 2.6483 2051 1314 0610 123.988256 
0493 0.0125 2240 0534 1698 31.484863 
0494 0.0033 1245 0190 0193 31.464276 
0495 0.0018 2003 1347 0490 9.774960 
0496 0.0029 2280 1900 0846 5.134308 
0497 0.0381 2318 0783 1112 72.792477 
0498 0.0062 1577 0782 0996 42.469389 
0499 0.0048 2059 1338 0609 -160.087577 
0500 0.0473 2113 0842 1819 83.515123 
0501 0.0369 2285 0422 0880 -4.203331 
0502 0.1103 1080 0654 0517 106.492545 
0503 0.2090 2506 0982 1912 81.204331 
0504 0.1934 1909 0782 1722 99.578408 
0505 0.0023 1656 0490 1070 3.595159 
0506 0.0007 1924 1555 0571 -4.054926 
0507 0.0320 1513 1115 0747 34.446120 
0508 0.0429 1358 0521 1148 32.252756 
0509 0.0046 2144 0678 0421 7.566826 
0510 0.0041 1577 1432 0368 8.321915 
0511 0.0023 1232 1231 0455 9.340577 
0512 0.8794 2210 1482 0876 37.728775 
0513 0.1259 1989 0586 1058 91.839178 
0514 0.5236 1211 0915 0460 91.589752 
0515 0.0286 1523 1318 0417 -2.699957 
0516 0.0009 2077 0573 1313 15.242978 
0517 0.0008 1529 0874 0622 -173.303164 
0518 0.0017 2057 0990 2013 9.077731 
0519 0.4068 2238 1854 0275 81.819628 
0520 0.0036 2063 1081 0583 1.051577 
0521 0.0251 2501 2058 1220 27.318181 
0522 0.6443 1859 0463 0965 64.282933 
0523 0.0375 2435 0907 1580 23.468672 
0524 0.0242 1513 1136 0296 31.737693 
0525 0.0019 1507 1118 0198 11.605888 
0526 3.2006 2479 1678 1028 124.466437 
0527 0.0061 2059 1068 1338 -156.907520 
0528 0.8811 2127 1482 0378 98.037315 
0529 0.0332 2279 1058 0770 33.995157 
0530 6.3128 2479 0690 0966 121.361375 
0531 0.0174 2322 1788 0521 30.922874 
0532 0.0045 2013 0421 0678 7.361326 
0533 0.6834 2328 0716 1345 98.332867 
0534 0.0281 1561 0469 0845 29.868121 
0535 0.0331 2435 1029 1676 18.430008 
0536 8.4366 2223 0245 1851 111.522418 
0537 0.0031 2077 0609 0356 -162.843670 
0538 0.0022 2398 1507 2101 10.361786 
0539 0.0061 2499 0398 1322 -172.458526 
0540 0.4150 2432 1502 0300 93.315442 
0541 0.0227 2462 0569 1300 31.246049 
0542 0.1785 1986 0842 0466 95.523164 
0543 0.0251 2442 1979 0601 19.803335 
0544 0.4683 2386 0654 1859 88.976428 
0545 0.3239 1286 1198 0915 92.389786 
0546 1.8021 2414 1295 1947 119.490811 
0547 0.1197 2204 0575 0864 103.724281 
0548 0.0331 2279 0770 1537 19.788394 
0549 0.0065 1876 0977 0734 -162.203001 
0550 4.7477 1678 0403 0676 125.364051 
0551 0.0271 2278 1874 0845 30.677828 
0552 0.0138 2202 0390 0787 -143.215067 
0553 0.0131 2157 0490 1801 75.379130 
0554 0.0720 1986 1819 0842 92.715156 
0555 0.0045 1544 1353 0277 4.413246 
0556 0.8224 1906 0254 1295 88.104060 
0557 0.0045 1544 0581 1353 4.779912 
0558 0.0052 2242 0787 0390 36.879635 
0559 0.0029 2100 1037 1817 -172.163283 
0560 0.4040 2020 1722 0466 99.221226 
0561 0.0447 1656 1070 1592 115.794610 
0562 0.2390 2506 0831 0218 72.207764 
0563 0.7168 2433 0794 2127 83.210067 
0564 0.0118 1156 0510 1044 -172.192836 
0565 0.0189 1752 1518 0258 -175.979301 
0566 0.0178 1938 1616 0499 26.897646 
0567 2.8750 2187 0245 0907 113.814542 
0568 0.0481 1885 1630 0660 22.767475 
0569 0.1723 1444 1198 0660 80.071751 
0570 0.0140 1914 0517 0838 -172.882135 
0571 0.0030 2366 0199 0198 9.972847 
0572 6.6954 2223 0690 1521 111.870385 
0573 5.5983 2187 1851 0245 110.339117 
0574 0.0035 2398 0712 1427 5.099934 
0575 0.0322 1935 1581 0647 31.478930 
0576 0.0043 2291 1529 0622 -169.799289 
0577 5.3499 2479 0403 1678 124.159567 
0578 0.2591 2238 0864 0575 66.506697 
0579 0.0082 1259 1201 0864 56.646184 
0580 0.0046 2063 0583 1117 0.619585 
0581 0.3894 1909 1722 1130 100.772930 
0582 0.0065 1675 0780 1146 -139.191490 
0583 0.0014 2057 0321 1228 20.888905 
0584 0.0027 2398 1118 1507 10.293297 
0585 0.0017 2101 1507 0198 11.950547 
0586 0.0336 1220 0422 1029 28.398286 
0587 0.0040 1929 1836 0757 23.590169 
0588 0.2910 1502 0531 1256 90.351969 
0589 0.0299 2322 0521 1665 28.360772 
0590 0.2028 1864 0982 0727 94.733181 
0591 0.0104 1924 0310 0789 -172.827291 
0592 0.0223 1938 0256 0943 38.142918 
0593 0.0451 2442 0897 0276 -1.770640 
0594 0.0032 2397 0359 2085 1.570259 
0595 0.3983 1835 1496 0716 91.856904 
0596 0.4964 1130 0777 0247 102.358668 
0597 0.0021 1656 1472 0490 3.865724 
0598 0.1767 1997 1320 0571 88.427005 
0599 0.0285 2410 0534 0780 32.953945 
0600 0.0027 2083 0713 1792 -5.423905 
0601 0.0263 1919 1787 0503 84.046920 
0602 0.0092 2248 0517 1120 -177.592908 
0603 0.0103 2306 0862 1822 -17.120155 
0604 0.0066 2134 1728 0310 -172.245783 
0605 0.0107 2291 1120 0517 -169.909381 
0606 1.1355 1997 1586 0610 117.338574 
0607 0.0619 2167 1406 0963 97.765192 
0608 0.4685 1612 0464 0811 101.834844 
0609 0.0032 1137 1037 0327 -179.856551 
0610 0.0050 2398 1427 0421 6.535539 
0611 0.0088 2504 0296 1354 28.868764 
0612 2.7148 1586 1489 0676 110.603204 
0613 0.9540 2497 0287 0904 99.241638 
0614 0.0046 2491 0327 0734 -159.914796 
0615 0.0012 2366 0723 2191 13.075624 
0616 0.7507 2127 0794 1482 96.473800 
0617 0.0056 1836 1136 0757 29.600059 
0618 0.0223 1752 0258 1713 -172.608099 
0619 1.1864 1703 0795 0555 130.664547 
0620 0.0072 2201 1338 1068 -152.171181 
0621 0.4134 1582 1211 0460 76.679287 
0622 0.0010 2335 1313 0442 16.708322 
0623 0.2057 1592 1181 0710 94.895473 
0624 0.7019 1778 1444 0254 91.975373 
0625 0.0024 2163 1063 0377 59.320246 
0626 0.0054 2335 1068 2059 -156.635152 
0627 0.3314 2238 0575 1271 64.510173 
0628 1.1899 2308 2167 0963 119.600123 
0629 0.2292 1667 1256 0531 93.627436 
0630 0.0417 1885 0387 1630 21.588307 
0631 0.2998 1854 1667 0275 100.780101 
0632 0.0792 2061 1594 0430 43.432996 
0633 0.0023 2320 0874 2144 14.323660 
0634 0.0063 2247 2012 0238 -0.695901 
0635 0.0208 1788 1148 0521 30.465356 
0636 0.0026 1900 1526 0277 4.744519 
0637 0.0019 2144 1529 0678 9.546583 
0638 0.0433 2318 1112 1665 28.487572 
0639 0.0037 1801 0490 1347 9.536551 
0640 0.8327 2415 1787 0378 94.617785 
0641 0.9416 2127 0378 1235 102.779404 
0642 0.0089 1914 0838 1322 -173.581345 
0643 0.4554 2410 0254 1444 101.520060 
0644 0.0113 2026 0901 1011 43.263161 
0645 0.0290 1148 0943 0256 36.229898 
0646 0.0022 1792 0194 1429 -12.373689 
0647 0.0207 1713 0258 1156 -171.989211 
0648 0.0026 2083 1429 1117 1.781354 
0649 0.0003 2091 1243 1031 48.412852 
0650 0.0117 1836 0296 1136 35.515833 
0651 0.0264 2318 0677 1580 27.815561 
0652 0.0702 1909 0996 0782 95.976320 
0653 1.2457 2328 1345 0904 85.388236 
0654 0.5122 1997 0610 1320 103.408345 
0655 0.0018 1567 0188 0190 58.991598 
0656 0.0033 2280 0846 1577 7.316832 
0657 0.3922 1864 1271 0355 85.748941 
0658 0.0027 2398 2101 0712 10.277647 
0659 1.4659 2414 0336 0876 108.708992 
0660 0.1681 1638 1286 0915 80.122563 
0661 0.0121 2504 1115 0296 19.773740 
0662 0.0059 2491 2248 0327 135.433694 
0663 0.0054 2102 1296 0396 49.666249 
0664 0.0066 2334 0316 2202 -152.401188 
0665 0.0199 1938 0499 1011 14.493240 
0666 0.7322 1906 0876 1482 44.090506 
0667 0.1995 1592 1070 0324 101.112259 
0668 0.0104 1011 0901 0376 31.680564 
0669 0.0414 1829 1115 1523 25.247323 
0670 0.3940 1582 0460 0931 124.730334 
0671 0.0014 1817 1037 0682 -173.893921 
0672 0.0062 1878 1322 1421 -172.593450 
0673 0.1772 1568 1567 0466 89.391173 
0674 1.6996 2414 0795 1703 129.219106 
0675 0.0207 2344 1616 0770 10.417072 
0676 0.0042 2085 1483 0713 6.446206 
0677 0.0082 1338 0977 0609 -159.739643 
0678 1.7974 2414 1703 0336 134.467128 
0679 0.0131 1713 1156 0823 -172.120021 
0680 0.0191 1919 1270 0697 74.596532 
0681 0.1261 2386 1518 1752 101.327985 
0682 0.2737 2373 0300 1256 93.451949 
0683 0.0017 2077 1313 0609 -164.077230 
0684 0.0053 1568 0189 0188 18.302701 
0685 0.0351 2457 0314 1132 23.064484 
0686 0.0217 1917 0276 1320 17.071894 
0687 0.0199 2457 1148 1788 30.268597 
0688 0.0043 2085 1427 0712 -2.154012 
0689 0.0053 2015 1259 0396 55.575888 
0690 0.1784 1567 0710 1181 88.412310 
0691 0.0329 1581 1112 0783 27.733340 
0692 0.0008 1031 0344 0502 -5.957609 
0693 0.0039 2320 2144 1427 7.035889 
0694 0.0023 1429 0194 1117 -2.090284 
0695 0.0057 2280 0996 1232 10.277004 
0696 0.0037 2063 1117 0194 -2.156419 
0697 0.0164 2462 0295 1069 27.292541 
0698 0.7076 2127 1235 0931 111.058132 
0699 0.0041 2100 0734 0327 -178.508334 
0700 0.0062 2335 2334 1068 -158.915545 
0701 0.2899 1211 0727 0982 56.417904 
0702 0.4459 2040 1008 0555 102.540748 
0703 0.0278 2435 1676 0601 30.050448 
0704 0.0173 1679 0638 0508 8.554666 
0705 0.0259 2061 0557 1132 3.253297 
0706 0.0288 1058 0238 0770 23.634534 
0707 0.0097 1728 0510 1628 -172.090696 
0708 0.0133 2242 0390 1028 -143.374910 
0709 0.0488 1935 1132 0314 29.333408 
0710 0.2598 1986 0466 1722 98.444178 
0711 0.2061 1858 1496 0805 98.896947 
0712 0.0073 1232 1065 0573 13.247632 
0713 1.2132 2242 1028 1678 126.711484 
0714 0.0773 2410 1444 0534 21.911640 
0715 0.1124 1438 0430 1143 75.688574 
0716 0.0020 2240 1146 0780 -143.430917 
0717 0.8021 2433 1778 0794 77.000169 
0718 0.0656 1676 0422 0897 -1.091215 
0719 0.0210 2389 0387 1521 22.286111 
0720 0.0013 2335 2059 1313 -163.343598 
0721 0.0327 1616 1537 0770 6.013763 
0722 0.0387 1885 0660 1286 26.384078 
0723 0.0005 2186 0622 0874 14.711754 
0724 0.0522 1829 1523 0417 21.752630 
0725 0.0157 2501 0295 2462 28.633933 
0726 0.0465 2248 1080 0517 117.995687 
0727 0.0033 2397 2085 1471 -1.382385 
0728 0.7547 2410 1947 0254 121.941353 
0729 6.5144 2479 2283 0403 128.232966 
0730 0.0079 2499 1713 0823 -170.935478 
0731 0.0020 2280 0455 1900 9.220999 
0732 0.0442 1874 1829 0569 27.741970 
0733 0.0217 1993 0275 1667 55.733477 
0734 3.6163 2187 0784 1851 112.274131 
0735 0.1577 1986 1722 0782 97.614055 
0736 0.0001 1817 0455 1231 8.669375 
0737 0.0418 2415 1258 1787 83.700397 
0738 0.6036 2433 0931 0460 141.148794 
0739 0.0106 1331 1215 0531 62.897210 
0740 0.0365 1885 1638 0647 17.402164 
0741 0.5877 2222 1496 0464 98.654275 
0742 0.3191 1864 1854 1271 88.827675 
0743 0.0190 1966 0256 1561 30.845498 
0744 0.5803 1778 1198 1444 100.093738 
0745 0.0389 2058 0422 1220 6.683781 
0746 0.0061 2204 1201 0371 37.717951 
0747 0.0787 2279 0430 1438 65.217778 
0748 0.5733 2328 1835 0716 120.426202 
0749 0.0049 2280 1577 0996 7.639304 
0750 0.1455 1594 1143 0430 60.753095 
0751 0.0121 1836 1114 0296 31.031797 
0752 0.0329 1537 0943 0557 3.417679 
0753 0.0662 1567 0190 0710 97.430328 
0754 0.0016 1712 1245 0193 14.181338 
0755 0.0020 2057 0528 0723 16.435973 
0756 0.1182 1989 1058 1438 83.372892 
0757 0.7306 1345 0377 1170 103.948446 
0758 0.3471 1859 0654 1080 96.565266 
0759 0.0027 1232 0573 1231 13.346987 
0760 0.0040 1924 1708 0310 -171.694519 
0761 0.3926 2238 1271 1854 82.086691 
0762 0.5134 1835 0287 0811 104.486822 
0763 0.0113 2247 0238 1058 34.343631 
0764 0.0014 2335 1509 2334 -159.726809 
